# Table 2 System throughput curve for the WFCAM Z filter
# 1.0mm water vapour, 1.3 airmass
# Col 1: wavelength (microns)
# Col 2: throughput
#
   8000.00        0.000300000
   8005.00        0.000300000
   8010.00        0.000300000
   8015.00        0.000400000
   8020.00        0.000400000
   8025.00        0.000400000
   8030.00        0.000500000
   8035.00        0.000500000
   8040.00        0.000500000
   8045.00        0.000600000
   8050.00        0.000600000
   8055.00        0.000700000
   8060.00        0.000700000
   8065.00        0.000700000
   8070.00        0.000800000
   8075.00        0.000800000
   8080.00        0.000900000
   8085.00        0.001000000
   8090.00        0.001000000
   8095.00        0.001100000
   8100.00        0.001100000
   8105.00        0.001200000
   8110.00        0.001300000
   8115.00        0.001400000
   8120.00        0.001500000
   8125.00        0.001600000
   8130.00        0.001700000
   8135.00        0.001800000
   8140.00        0.002000000
   8145.00        0.002100000
   8150.00        0.002300000
   8155.00        0.002500000
   8160.00        0.002800000
   8165.00        0.002900000
   8170.00        0.003300000
   8175.00        0.003600000
   8180.00        0.003800000
   8185.00        0.004300000
   8190.00        0.004600000
   8195.00        0.005100000
   8200.00        0.005500000
   8205.00        0.006200000
   8210.00        0.006700000
   8215.00        0.007400000
   8220.00        0.008100000
   8225.00        0.009000000
   8230.00        0.009300000
   8235.00        0.010800000
   8240.00        0.012200000
   8245.00        0.013700000
   8250.00        0.015400000
   8255.00        0.017200001
   8260.00        0.018900000
   8265.00        0.021299999
   8270.00        0.023700001
   8275.00        0.025699999
   8280.00        0.028400000
   8285.00        0.031099999
   8290.00        0.033799998
   8295.00        0.037500001
   8300.00        0.041000001
   8305.00        0.044300001
   8310.00        0.048099998
   8315.00        0.052099999
   8320.00        0.055799998
   8325.00        0.059900001
   8330.00        0.064700000
   8335.00        0.069200002
   8340.00        0.073600002
   8345.00        0.078699999
   8350.00        0.083400004
   8355.00        0.088200003
   8360.00        0.093000002
   8365.00        0.097900003
   8370.00        0.102799997
   8375.00        0.107400000
   8380.00        0.111800000
   8385.00        0.116300002
   8390.00        0.120499998
   8395.00        0.124300003
   8400.00        0.127900004
   8405.00        0.131400004
   8410.00        0.134599999
   8415.00        0.137899995
   8420.00        0.140900001
   8425.00        0.143600002
   8430.00        0.146200001
   8435.00        0.148399994
   8440.00        0.150600001
   8445.00        0.152400002
   8450.00        0.154100001
   8455.00        0.155300006
   8460.00        0.156599998
   8465.00        0.157399997
   8470.00        0.158199996
   8475.00        0.158800006
   8480.00        0.159299999
   8485.00        0.159700006
   8490.00        0.160099998
   8495.00        0.160400003
   8500.00        0.160799995
   8505.00        0.160999998
   8510.00        0.161400005
   8515.00        0.161400005
   8520.00        0.161799997
   8525.00        0.162000000
   8530.00        0.162100002
   8535.00        0.162300006
   8540.00        0.162400007
   8545.00        0.162499994
   8550.00        0.162599996
   8555.00        0.162799999
   8560.00        0.163000003
   8565.00        0.163200006
   8570.00        0.163499996
   8575.00        0.163800001
   8580.00        0.164299995
   8585.00        0.164700001
   8590.00        0.165199995
   8595.00        0.165800005
   8600.00        0.166400000
   8605.00        0.166999996
   8610.00        0.167600006
   8615.00        0.168200001
   8620.00        0.168799996
   8625.00        0.169400007
   8630.00        0.170000002
   8635.00        0.170499995
   8640.00        0.171000004
   8645.00        0.171399996
   8650.00        0.171800002
   8655.00        0.172099993
   8660.00        0.172499999
   8665.00        0.172700003
   8670.00        0.172999993
   8675.00        0.173099995
   8680.00        0.173299998
   8685.00        0.173400000
   8690.00        0.173500001
   8695.00        0.173600003
   8700.00        0.173700005
   8705.00        0.173800007
   8710.00        0.173899993
   8715.00        0.173999995
   8720.00        0.174199998
   8725.00        0.174400002
   8730.00        0.174600005
   8735.00        0.174999997
   8740.00        0.175300002
   8745.00        0.175600007
   8750.00        0.175999999
   8755.00        0.176400006
   8760.00        0.176899999
   8765.00        0.177300006
   8770.00        0.177699998
   8775.00        0.178100005
   8780.00        0.178599998
   8785.00        0.178900003
   8790.00        0.179299995
   8795.00        0.179700002
   8800.00        0.180000007
   8805.00        0.180299997
   8810.00        0.180600002
   8815.00        0.180800006
   8820.00        0.181099996
   8825.00        0.181199998
   8830.00        0.181500003
   8835.00        0.181600004
   8840.00        0.181799993
   8845.00        0.182099998
   8850.00        0.182200000
   8855.00        0.182400003
   8860.00        0.182500005
   8865.00        0.182899997
   8870.00        0.183100000
   8875.00        0.183400005
   8880.00        0.183500007
   8885.00        0.183899999
   8890.00        0.184200004
   8895.00        0.184400007
   8900.00        0.184599996
   8905.00        0.184900001
   8910.00        0.185200006
   8915.00        0.185499996
   8920.00        0.185399994
   8925.00        0.185900003
   8930.00        0.185800001
   8935.00        0.185800001
   8940.00        0.186399996
   8945.00        0.186000004
   8950.00        0.185499996
   8955.00        0.184400007
   8960.00        0.185599998
   8965.00        0.181700006
   8970.00        0.184499994
   8975.00        0.180299997
   8980.00        0.185599998
   8985.00        0.184499994
   8990.00        0.172800004
   8995.00        0.176499993
   9000.00        0.186299995
   9005.00        0.180399999
   9010.00        0.183200002
   9015.00        0.182999998
   9020.00        0.176100001
   9025.00        0.181199998
   9030.00        0.183200002
   9035.00        0.185900003
   9040.00        0.187600002
   9045.00        0.184599996
   9050.00        0.186399996
   9055.00        0.183400005
   9060.00        0.186000004
   9065.00        0.181999996
   9070.00        0.178900003
   9075.00        0.175699994
   9080.00        0.182999998
   9085.00        0.180199996
   9090.00        0.177699998
   9095.00        0.181400001
   9100.00        0.182500005
   9105.00        0.183699995
   9110.00        0.179299995
   9115.00        0.187700003
   9120.00        0.180099994
   9125.00        0.188800007
   9130.00        0.185699999
   9135.00        0.184900001
   9140.00        0.180800006
   9145.00        0.189899996
   9150.00        0.190599993
   9155.00        0.181299999
   9160.00        0.184499994
   9165.00        0.189500004
   9170.00        0.188800007
   9175.00        0.183899999
   9180.00        0.185399994
   9185.00        0.187000006
   9190.00        0.188199997
   9195.00        0.186399996
   9200.00        0.185499996
   9205.00        0.186299995
   9210.00        0.183500007
   9215.00        0.182200000
   9220.00        0.178800002
   9225.00        0.178900003
   9230.00        0.176899999
   9235.00        0.173199996
   9240.00        0.169200003
   9245.00        0.165500000
   9250.00        0.160400003
   9255.00        0.154400006
   9260.00        0.149200007
   9265.00        0.139400005
   9270.00        0.132100001
   9275.00        0.121600002
   9280.00        0.110100001
   9285.00        0.101800002
   9290.00        0.090499997
   9295.00        0.081100002
   9300.00        0.070100002
   9305.00        0.061900001
   9310.00        0.051899999
   9315.00        0.049100000
   9320.00        0.035000000
   9325.00        0.034800000
   9330.00        0.030500000
   9335.00        0.026400000
   9340.00        0.023399999
   9345.00        0.016899999
   9350.00        0.019900000
   9355.00        0.016200000
   9360.00        0.012000000
   9365.00        0.014400000
   9370.00        0.010800000
   9375.00        0.009200000
   9380.00        0.008000000
   9385.00        0.007200000
   9390.00        0.006100000
   9395.00        0.006300000
   9400.00        0.005300000
   9405.00        0.004700000
   9410.00        0.004200000
   9415.00        0.003700000
   9420.00        0.003200000
   9425.00        0.003100000
   9430.00        0.002100000
   9435.00        0.002700000
   9440.00        0.002200000
   9445.00        0.001800000
   9450.00        0.002200000
   9455.00        0.002000000
   9460.00        0.001700000
   9465.00        0.001600000
   9470.00        0.001600000
   9475.00        0.001500000
   9480.00        0.001400000
   9485.00        0.001000000
   9490.00        0.001200000
   9495.00        0.001000000
   9500.00        0.000900000
   9505.00        0.000800000
   9510.00        0.000800000
   9515.00        0.000800000
   9520.00        0.000600000
   9525.00        0.000600000
   9530.00        0.000600000
   9535.00        0.000600000
   9540.00        0.000600000
   9545.00        0.000500000
   9550.00        0.000500000
   9555.00        0.000500000
   9560.00        0.000500000
   9565.00        0.000500000
   9570.00        0.000400000
   9575.00        0.000400000
   9580.00        0.000400000
   9585.00        0.000400000
   9590.00        0.000300000
   9595.00        0.000300000
   9600.00        0.000300000
   9605.00        0.000300000
   9610.00        0.000300000
   9615.00        0.000300000
   9620.00        0.000200000
   9625.00        0.000200000
   9630.00        0.000200000
   9635.00        0.000200000
   9640.00        0.000200000
   9645.00        0.000200000
   9650.00        0.000200000
   9655.00        0.000200000
   9660.00        0.000200000
   9665.00        0.000100000
   9670.00        0.000100000
   9675.00        0.000100000
   9680.00        0.000100000
   9685.00        0.000100000
   9690.00        0.000100000
   9695.00        0.000100000
   9700.00        0.000100000
   9705.00        0.000100000
   9710.00        0.000100000
   9715.00        0.000100000
   9720.00        0.000100000
   9725.00        0.000100000
   9730.00        0.000100000
   9735.00        0.000100000
   9740.00        0.000100000
   9745.00        0.000100000
   9750.00        0.000100000
   9755.00        0.000100000
   9760.00        0.000100000
   9765.00        0.000000000
   9770.00        0.000100000
   9775.00        0.000000000
   9780.00        0.000000000
   9785.00        0.000000000
   9790.00        0.000000000
   9795.00        0.000000000
   9800.00        0.000000000
   9805.00        0.000000000
   9810.00        0.000000000
   9815.00        0.000000000
   9820.00        0.000000000
   9825.00        0.000000000
   9830.00        0.000000000
   9835.00        0.000000000
   9840.00        0.000000000
   9845.00        0.000000000
   9850.00        0.000000000
   9855.00        0.000000000
   9860.00        0.000000000
   9865.00        0.000000000
   9870.00        0.000000000
   9875.00        0.000000000
   9880.00        0.000000000
   9885.00        0.000000000
   9890.00        0.000000000
   9895.00        0.000000000
   9900.00        0.000000000
   9905.00        0.000000000
   9910.00        0.000000000
   9915.00        0.000000000
   9920.00        0.000000000
   9925.00        0.000000000
   9930.00        0.000000000
   9935.00        0.000000000
   9940.00        0.000000000
   9945.00        0.000000000
   9950.00        0.000000000
   9955.00        0.000000000
   9960.00        0.000000000
   9965.00        0.000000000
   9970.00        0.000000000
   9975.00        0.000000000
   9980.00        0.000000000
   9985.00        0.000000000
   9990.00        0.000000000
   9995.00        0.000000000
  10000.00        0.000000000
  10005.00        0.000000000
  10010.00        0.000000000
  10015.00        0.000000000
  10020.00        0.000000000
  10025.00        0.000000000
  10030.00        0.000000000
  10035.00        0.000000000
  10040.00        0.000000000
  10045.00        0.000000000
  10050.00        0.000000000
  10055.00        0.000000000
  10060.00        0.000000000
  10065.00        0.000000000
  10070.00        0.000000000
  10075.00        0.000000000
  10080.00        0.000000000
  10085.00        0.000000000
  10090.00        0.000000000
  10095.00        0.000000000
  10100.00        0.000000000
  10105.00        0.000000000
  10110.00        0.000000000
  10115.00        0.000000000
  10120.00        0.000000000
  10125.00        0.000000000
  10130.00        0.000000000
  10135.00        0.000000000
  10140.00        0.000000000
  10145.00        0.000000000
  10150.00        0.000000000
  10155.00        0.000000000
  10160.00        0.000000000
  10165.00        0.000000000
  10170.00        0.000000000
  10175.00        0.000000000
  10180.00        0.000000000
  10185.00        0.000000000
  10190.00        0.000000000
  10195.00        0.000000000
  10200.00        0.000000000
  10205.00        0.000000000
  10210.00        0.000000000
  10215.00        0.000000000
  10220.00        0.000000000
  10225.00        0.000000000
  10230.00        0.000000000
  10235.00        0.000000000
  10240.00        0.000000000
  10245.00        0.000000000
  10250.00        0.000000000
  10255.00        0.000000000
  10260.00        0.000000000
  10265.00        0.000000000
  10270.00        0.000000000
  10275.00        0.000000000
  10280.00        0.000000000
  10285.00        0.000000000
  10290.00        0.000000000
  10295.00        0.000000000
  10300.00        0.000000000
